t,v(t)
0,0
0.02,-0.1934
0.04,-0.3868
0.06,-0.5802
0.08,-0.7736
0.1,-0.966999
0.12,-1.1604
0.14,-1.3538
0.16,-1.5472
0.18,-1.7406
0.2,-1.93399
0.22,-2.12739
0.24,-2.32079
0.26,-2.51419
0.28,-2.70758
0.3,-2.90098
0.32,-3.09437
0.34,-3.28777
0.36,-3.48116
0.38,-3.67456
0.4,-3.86795
0.42,-4.06134
0.44,-4.25473
0.46,-4.44812
0.48,-4.64151
0.5,-4.8349
0.52,-5.02829
0.54,-5.22167
0.56,-5.41506
0.58,-5.60844
0.6,-5.80182
0.62,-5.99521
0.64,-6.18859
0.66,-6.38196
0.68,-6.57534
0.7,-6.76872
0.72,-6.96209
0.74,-7.15547
0.76,-7.34884
0.78,-7.54221
0.8,-7.73558
0.82,-7.92894
0.84,-8.12231
0.86,-8.31567
0.88,-8.50904
0.9,-8.7024
0.92,-8.89575
0.94,-9.08911
0.96,-9.28247
0.98,-9.47582
1,-9.66917
1.02,-9.86252
1.04,-10.0559
1.06,-10.2492
1.08,-10.4426
1.1,-10.6359
1.12,-10.8292
1.14,-11.0226
1.16,-11.2159
1.18,-11.4092
1.2,-11.6026
1.22,-11.7959
1.24,-11.9892
1.26,-12.1825
1.28,-12.3758
1.3,-12.5692
1.32,-12.7625
1.34,-12.9558
1.36,-13.1491
1.38,-13.3424
1.4,-13.5357
1.42,-13.729
1.44,-13.9223
1.46,-14.1156
1.48,-14.3089
1.5,-14.5022
1.52,-14.6955
1.54,-14.8887
1.56,-15.082
1.58,-15.2753
1.6,-15.4686
1.62,-15.6618
1.64,-15.8551
1.66,-16.0484
1.68,-16.2416
1.7,-16.4349
1.72,-16.6281
1.74,-16.8214
1.76,-17.0146
1.78,-17.2078
1.8,-17.4011
1.82,-17.5943
1.84,-17.7875
1.86,-17.9808
1.88,-18.174
1.9,-18.3672
1.92,-18.5604
1.94,-18.7536
1.96,-18.9468
1.98,-19.14
2,-19.3332
2.02,-19.5264
2.04,-19.7196
2.06,-19.9128
2.08,-20.106
2.1,-20.2992
2.12,-20.4923
2.14,-20.6855
2.16,-20.8787
2.18,-21.0718
2.2,-21.265
2.22,-21.4581
2.24,-21.6513
2.26,-21.8444
2.28,-22.0376
2.3,-22.2307
2.32,-22.4238
2.34,-22.617
2.36,-22.8101
2.38,-23.0032
2.4,-23.1963
2.42,-23.3894
2.44,-23.5825
2.46,-23.7756
2.48,-23.9687
2.5,-24.1618
2.52,-24.3548
2.54,-24.5479
2.56,-24.741
2.58,-24.934
2.6,-25.1271
2.62,-25.3202
2.64,-25.5132
2.66,-25.7062
2.68,-25.8993
2.7,-26.0923
2.72,-26.2853
2.74,-26.4784
2.76,-26.6714
2.78,-26.8644
2.8,-27.0574
2.82,-27.2504
2.84,-27.4434
2.86,-27.6363
2.88,-27.8293
2.9,-28.0223
2.92,-28.2153
2.94,-28.4082
2.96,-28.6012
2.98,-28.7941
3,-28.9871
3.02,-29.18
3.04,-29.3729
3.06,-29.5659
3.08,-29.7588
3.1,-29.9517
3.12,-30.1446
3.14,-30.3375
3.16,-30.5304
3.18,-30.7233
3.2,-30.9161
3.22,-31.109
3.24,-31.3019
3.26,-31.4947
3.28,-31.6876
3.3,-31.8804
3.32,-32.0733
3.34,-32.2661
3.36,-32.4589
3.38,-32.6518
3.4,-32.8446
3.42,-33.0374
3.44,-33.2302
3.46,-33.423
3.48,-33.6157
3.5,-33.8085
3.52,-34.0013
3.54,-34.194
3.56,-34.3868
3.58,-34.5795
3.6,-34.7723
3.62,-34.965
3.64,-35.1577
3.66,-35.3505
3.68,-35.5432
3.7,-35.7359
3.72,-35.9286
3.74,-36.1212
3.76,-36.3139
3.78,-36.5066
3.8,-36.6993
3.82,-36.8919
3.84,-37.0846
3.86,-37.2772
3.88,-37.4698
3.9,-37.6625
3.92,-37.8551
3.94,-38.0477
3.96,-38.2403
3.98,-38.4329
4,-38.6254
4.02,-38.818
4.04,-39.0106
4.06,-39.2031
4.08,-39.3957
4.1,-39.5882
4.12,-39.7808
4.14,-39.9733
4.16,-40.1658
4.18,-40.3583
4.2,-40.5508
4.22,-40.7433
4.24,-40.9358
4.26,-41.1282
4.28,-41.3207
4.3,-41.5132
4.32,-41.7056
4.34,-41.898
4.36,-42.0905
4.38,-42.2829
4.4,-42.4753
4.42,-42.6677
4.44,-42.8601
4.46,-43.0525
4.48,-43.2448
4.5,-43.4372
4.52,-43.6295
4.54,-43.8219
4.56,-44.0142
4.58,-44.2066
4.6,-44.3989
4.62,-44.5912
4.64,-44.7835
4.66,-44.9758
4.68,-45.168
4.7,-45.3603
4.72,-45.5526
4.74,-45.7448
4.76,-45.937
4.78,-46.1293
4.8,-46.3215
4.82,-46.5137
4.84,-46.7059
4.86,-46.8981
4.88,-47.0903
4.9,-47.2824
4.92,-47.4746
4.94,-47.6667
4.96,-47.8589
4.98,-48.051
5,-48.2431
5.02,-48.4352
5.04,-48.6273
5.06,-48.8194
5.08,-49.0115
5.1,-49.2035
5.12,-49.3956
5.14,-49.5876
5.16,-49.7797
5.18,-49.9717
5.2,-50.1637
5.22,-50.3557
5.24,-50.5477
5.26,-50.7397
5.28,-50.9316
5.3,-51.1236
5.32,-51.3155
5.34,-51.5075
5.36,-51.6994
5.38,-51.8913
5.4,-52.0832
5.42,-52.2751
5.44,-52.4669
5.46,-52.6588
5.48,-52.8507
5.5,-53.0425
5.52,-53.2343
5.54,-53.4262
5.56,-53.618
5.58,-53.8098
5.6,-54.0016
5.62,-54.1933
5.64,-54.3851
5.66,-54.5768
5.68,-54.7686
5.7,-54.9603
5.72,-55.152
5.74,-55.3437
5.76,-55.5354
5.78,-55.7271
5.8,-55.9187
5.82,-56.1104
5.84,-56.302
5.86,-56.4937
5.88,-56.6853
5.9,-56.8769
5.92,-57.0685
5.94,-57.2601
5.96,-57.4516
5.98,-57.6432
6,-57.8347
6.02,-58.0263
6.04,-58.2178
6.06,-58.4093
6.08,-58.6008
6.1,-58.7923
6.12,-58.9837
6.14,-59.1752
6.16,-59.3666
6.18,-59.558
6.2,-59.7495
6.22,-59.9409
6.24,-60.1322
6.26,-60.3236
6.28,-60.515
6.3,-60.7063
6.32,-60.8977
6.34,-61.089
6.36,-61.2803
6.38,-61.4716
6.4,-61.6629
6.42,-61.8541
6.44,-62.0454
6.46,-62.2366
6.48,-62.4279
6.5,-62.6191
6.52,-62.8103
6.54,-63.0015
6.56,-63.1926
6.58,-63.3838
6.6,-63.575
6.62,-63.7661
6.64,-63.9572
6.66,-64.1483
6.68,-64.3394
6.7,-64.5305
6.72,-64.7215
6.74,-64.9126
6.76,-65.1036
6.78,-65.2946
6.8,-65.4856
6.82,-65.6766
6.84,-65.8676
6.86,-66.0586
6.88,-66.2495
6.9,-66.4404
6.92,-66.6314
6.94,-66.8223
6.96,-67.0132
6.98,-67.204
7,-67.3949
7.02,-67.5857
7.04,-67.7766
7.06,-67.9674
7.08,-68.1582
7.1,-68.349
7.12,-68.5397
7.14,-68.7305
7.16,-68.9212
7.18,-69.1119
7.2,-69.3027
7.22,-69.4934
7.24,-69.684
7.26,-69.8747
7.28,-70.0653
7.3,-70.256
7.32,-70.4466
7.34,-70.6372
7.36,-70.8278
7.38,-71.0184
7.4,-71.2089
7.42,-71.3994
7.44,-71.59
7.46,-71.7805
7.48,-71.971
7.5,-72.1614
7.52,-72.3519
7.54,-72.5423
7.56,-72.7328
7.58,-72.9232
7.6,-73.1136
7.62,-73.304
7.64,-73.4943
7.66,-73.6847
7.68,-73.875
7.7,-74.0653
7.72,-74.2556
7.74,-74.4459
7.76,-74.6362
7.78,-74.8264
7.8,-75.0166
7.82,-75.2069
7.84,-75.3971
7.86,-75.5872
7.88,-75.7774
7.9,-75.9676
7.92,-76.1577
7.94,-76.3478
7.96,-76.5379
7.98,-76.728
8,-76.918
8.02,-77.1081
8.04,-77.2981
8.06,-77.4881
8.08,-77.6781
8.1,-77.8681
8.12,-78.0581
8.14,-78.248
8.16,-78.4379
8.18,-78.6278
8.2,-78.8177
8.22,-79.0076
8.24,-79.1975
8.26,-79.3873
8.28,-79.5771
8.3,-79.7669
8.32,-79.9567
8.34,-80.1465
8.36,-80.3362
8.38,-80.526
8.4,-80.7157
8.42,-80.9054
8.44,-81.0951
8.46,-81.2847
8.48,-81.4744
8.5,-81.664
8.52,-81.8536
8.54,-82.0432
8.56,-82.2327
8.58,-82.4223
8.6,-82.6118
8.62,-82.8013
8.64,-82.9908
8.66,-83.1803
8.68,-83.3698
8.7,-83.5592
8.72,-83.7486
8.74,-83.938
8.76,-84.1274
8.78,-84.3168
8.8,-84.5061
8.82,-84.6954
8.84,-84.8848
8.86,-85.074
8.88,-85.2633
8.9,-85.4526
8.92,-85.6418
8.94,-85.831
8.96,-86.0202
8.98,-86.2094
9,-86.3985
9.02,-86.5877
9.04,-86.7768
9.06,-86.9659
9.08,-87.155
9.1,-87.344
9.12,-87.533
9.14,-87.7221
9.16,-87.9111
9.18,-88.1
9.2,-88.289
9.22,-88.4779
9.24,-88.6669
9.26,-88.8558
9.28,-89.0446
9.3,-89.2335
9.32,-89.4223
9.34,-89.6111
9.36,-89.7999
9.38,-89.9887
9.4,-90.1775
9.42,-90.3662
9.44,-90.5549
9.46,-90.7436
9.48,-90.9323
9.5,-91.121
9.52,-91.3096
9.54,-91.4982
9.56,-91.6868
9.58,-91.8754
9.6,-92.0639
9.62,-92.2525
9.64,-92.441
9.66,-92.6295
9.68,-92.8179
9.7,-93.0064
9.72,-93.1948
9.74,-93.3832
9.76,-93.5716
9.78,-93.76
9.8,-93.9483
9.82,-94.1366
9.84,-94.3249
9.86,-94.5132
9.88,-94.7014
9.9,-94.8897
9.92,-95.0779
9.94,-95.2661
9.96,-95.4543
9.98,-95.6424
10,-95.8305
10.02,-96.0186
10.04,-96.2067
10.06,-96.3948
10.08,-96.5828
10.1,-96.7708
10.12,-96.9588
10.14,-97.1468
10.16,-97.3348
10.18,-97.5227
10.2,-97.7106
10.22,-97.8985
10.24,-98.0863
10.26,-98.2742
10.28,-98.462
10.3,-98.6498
10.32,-98.8376
10.34,-99.0253
10.36,-99.213
10.38,-99.4007
10.4,-99.5884
10.42,-99.7761
10.44,-99.9637
10.46,-100.151
10.48,-100.339
10.5,-100.526
10.52,-100.714
10.54,-100.902
10.56,-101.089
10.58,-101.277
10.6,-101.464
10.62,-101.651
10.64,-101.839
10.66,-102.026
10.68,-102.214
10.7,-102.401
10.72,-102.588
10.74,-102.775
10.76,-102.963
10.78,-103.15
10.8,-103.337
10.82,-103.524
10.84,-103.712
10.86,-103.899
10.88,-104.086
10.9,-104.273
10.92,-104.46
10.94,-104.647
10.96,-104.834
10.98,-105.021
11,-105.208
11.02,-105.395
11.04,-105.582
11.06,-105.769
11.08,-105.956
11.1,-106.143
11.12,-106.329
11.14,-106.516
11.16,-106.703
11.18,-106.89
11.2,-107.076
11.22,-107.263
11.24,-107.45
11.26,-107.637
11.28,-107.823
11.3,-108.01
11.32,-108.196
11.34,-108.383
11.36,-108.569
11.38,-108.756
11.4,-108.942
11.42,-109.129
11.44,-109.315
11.46,-109.502
11.48,-109.688
11.5,-109.874
11.52,-110.061
11.54,-110.247
11.56,-110.433
11.58,-110.62
11.6,-110.806
11.62,-110.992
11.64,-111.178
11.66,-111.364
11.68,-111.551
11.7,-111.737
11.72,-111.923
11.74,-112.109
11.76,-112.295
11.78,-112.481
11.8,-112.667
11.82,-112.853
11.84,-113.039
11.86,-113.224
11.88,-113.41
11.9,-113.596
11.92,-113.782
11.94,-113.968
11.96,-114.154
11.98,-114.339
12,-114.525
12.02,-114.711
12.04,-114.896
12.06,-115.082
12.08,-115.267
12.1,-115.453
12.12,-115.639
12.14,-115.824
12.16,-116.01
12.18,-116.195
12.2,-116.381
12.22,-116.566
12.24,-116.751
12.26,-116.937
12.28,-117.122
12.3,-117.307
12.32,-117.493
12.34,-117.678
12.36,-117.863
12.38,-118.048
12.4,-118.233
12.42,-118.418
12.44,-118.604
12.46,-118.789
12.48,-118.974
12.5,-119.159
12.52,-119.344
12.54,-119.529
12.56,-119.714
12.58,-119.898
12.6,-120.083
12.62,-120.268
12.64,-120.453
12.66,-120.638
12.68,-120.823
12.7,-121.007
12.72,-121.192
12.74,-121.377
12.76,-121.561
12.78,-121.746
12.8,-121.931
12.82,-122.115
12.84,-122.3
12.86,-122.484
12.88,-122.669
12.9,-122.853
12.92,-123.037
12.94,-123.222
12.96,-123.406
12.98,-123.591
13,-123.775
13.02,-123.959
13.04,-124.143
13.06,-124.328
13.08,-124.512
13.1,-124.696
13.12,-124.88
13.14,-125.064
13.16,-125.248
13.18,-125.432
13.2,-125.616
13.22,-125.8
13.24,-125.984
13.26,-126.168
13.28,-126.352
13.3,-126.536
13.32,-126.72
13.34,-126.903
13.36,-127.087
13.38,-127.271
13.4,-127.455
13.42,-127.638
13.44,-127.822
13.46,-128.006
13.48,-128.189
13.5,-128.373
13.52,-128.556
13.54,-128.74
13.56,-128.923
13.58,-129.107
13.6,-129.29
13.62,-129.473
13.64,-129.657
13.66,-129.84
13.68,-130.023
13.7,-130.206
13.72,-130.39
13.74,-130.573
13.76,-130.756
13.78,-130.939
13.8,-131.122
13.82,-131.305
13.84,-131.488
13.86,-131.671
13.88,-131.854
13.9,-132.037
13.92,-132.22
13.94,-132.403
13.96,-132.586
13.98,-132.768
14,-132.951
14.02,-133.134
14.04,-133.317
14.06,-133.499
14.08,-133.682
14.1,-133.865
14.12,-134.047
14.14,-134.23
14.16,-134.412
14.18,-134.595
14.2,-134.777
14.22,-134.959
14.24,-135.142
14.26,-135.324
14.28,-135.506
14.3,-135.689
14.32,-135.871
14.34,-136.053
14.36,-136.235
14.38,-136.417
14.4,-136.6
14.42,-136.782
14.44,-136.964
14.46,-137.146
14.48,-137.328
14.5,-137.51
14.52,-137.692
14.54,-137.873
14.56,-138.055
14.58,-138.237
14.6,-138.419
14.62,-138.601
14.64,-138.782
14.66,-138.964
14.68,-139.146
14.7,-139.327
14.72,-139.509
14.74,-139.69
14.76,-139.872
14.78,-140.053
14.8,-140.235
14.82,-140.416
14.84,-140.597
14.86,-140.779
14.88,-140.96
14.9,-141.141
14.92,-141.323
14.94,-141.504
14.96,-141.685
14.98,-141.866
15,-142.047
15.02,-142.228
15.04,-142.409
15.06,-142.59
15.08,-142.771
15.1,-142.952
15.12,-143.133
15.14,-143.314
15.16,-143.495
15.18,-143.675
15.2,-143.856
15.22,-144.037
15.24,-144.217
15.26,-144.398
15.28,-144.579
15.3,-144.759
15.32,-144.94
15.34,-145.12
15.36,-145.301
15.38,-145.481
15.4,-145.661
15.42,-145.842
15.44,-146.022
15.46,-146.202
15.48,-146.383
15.5,-146.563
15.52,-146.743
15.54,-146.923
15.56,-147.103
15.58,-147.283
15.6,-147.463
15.62,-147.643
15.64,-147.823
15.66,-148.003
15.68,-148.183
15.7,-148.363
15.72,-148.542
15.74,-148.722
15.76,-148.902
15.78,-149.082
15.8,-149.261
15.82,-149.441
15.84,-149.62
15.86,-149.8
15.88,-149.979
15.9,-150.159
15.92,-150.338
15.94,-150.518
15.96,-150.697
15.98,-150.876
16,-151.056
16.02,-151.235
16.04,-151.414
16.06,-151.593
16.08,-151.772
16.1,-151.951
16.12,-152.13
16.14,-152.309
16.16,-152.488
16.18,-152.667
16.2,-152.846
16.22,-153.025
16.24,-153.204
16.26,-153.383
16.28,-153.561
16.3,-153.74
16.32,-153.919
16.34,-154.097
16.36,-154.276
16.38,-154.454
16.4,-154.633
16.42,-154.811
16.44,-154.99
16.46,-155.168
16.48,-155.347
16.5,-155.525
16.52,-155.703
16.54,-155.881
16.56,-156.059
16.58,-156.238
16.6,-156.416
16.62,-156.594
16.64,-156.772
16.66,-156.95
16.68,-157.128
16.7,-157.306
16.72,-157.484
16.74,-157.661
16.76,-157.839
16.78,-158.017
16.8,-158.195
16.82,-158.372
16.84,-158.55
16.86,-158.727
16.88,-158.905
16.9,-159.083
16.92,-159.26
16.94,-159.437
16.96,-159.615
16.98,-159.792
17,-159.969
17.02,-160.147
17.04,-160.324
17.06,-160.501
17.08,-160.678
17.1,-160.855
17.12,-161.032
17.14,-161.209
17.16,-161.386
17.18,-161.563
17.2,-161.74
17.22,-161.917
17.24,-162.094
17.26,-162.271
17.28,-162.447
17.3,-162.624
17.32,-162.801
17.34,-162.977
17.36,-163.154
17.38,-163.33
17.4,-163.507
17.42,-163.683
17.44,-163.86
17.46,-164.036
17.48,-164.212
17.5,-164.388
17.52,-164.565
17.54,-164.741
17.56,-164.917
17.58,-165.093
17.6,-165.269
17.62,-165.445
17.64,-165.621
17.66,-165.797
17.68,-165.973
17.7,-166.149
17.72,-166.324
17.74,-166.5
17.76,-166.676
17.78,-166.852
17.8,-167.027
17.82,-167.203
17.84,-167.378
17.86,-167.554
17.88,-167.729
17.9,-167.905
17.92,-168.08
17.94,-168.255
17.96,-168.43
17.98,-168.606
18,-168.781
18.02,-168.956
18.04,-169.131
18.06,-169.306
18.08,-169.481
18.1,-169.656
18.12,-169.831
18.14,-170.006
18.16,-170.181
18.18,-170.355
18.2,-170.53
18.22,-170.705
18.24,-170.88
18.26,-171.054
18.28,-171.229
18.3,-171.403
18.32,-171.578
18.34,-171.752
18.36,-171.926
18.38,-172.101
18.4,-172.275
18.42,-172.449
18.44,-172.623
18.46,-172.798
18.48,-172.972
18.5,-173.146
18.52,-173.32
18.54,-173.494
18.56,-173.668
18.58,-173.842
18.6,-174.015
18.62,-174.189
18.64,-174.363
18.66,-174.537
18.68,-174.71
18.7,-174.884
18.72,-175.057
18.74,-175.231
18.76,-175.404
18.78,-175.578
18.8,-175.751
18.82,-175.924
18.84,-176.098
18.86,-176.271
18.88,-176.444
18.9,-176.617
18.92,-176.79
18.94,-176.963
18.96,-177.136
18.98,-177.309
19,-177.482
19.02,-177.655
19.04,-177.828
19.06,-178.001
19.08,-178.173
19.1,-178.346
19.12,-178.519
19.14,-178.691
19.16,-178.864
19.18,-179.036
19.2,-179.209
19.22,-179.381
19.24,-179.553
19.26,-179.725
19.28,-179.898
19.3,-180.07
19.32,-180.242
19.34,-180.414
19.36,-180.586
19.38,-180.758
19.4,-180.93
19.42,-181.102
19.44,-181.274
19.46,-181.446
19.48,-181.617
19.5,-181.789
19.52,-181.961
19.54,-182.132
19.56,-182.304
19.58,-182.475
19.6,-182.647
19.62,-182.818
19.64,-182.989
19.66,-183.161
19.68,-183.332
19.7,-183.503
19.72,-183.674
19.74,-183.845
19.76,-184.017
19.78,-184.188
19.8,-184.358
19.82,-184.529
19.84,-184.7
19.86,-184.871
19.88,-185.042
19.9,-185.212
19.92,-185.383
19.94,-185.554
19.96,-185.724
19.98,-185.895
20,-186.065
20.02,-186.236
20.04,-186.406
20.06,-186.576
20.08,-186.746
20.1,-186.917
20.12,-187.087
20.14,-187.257
20.16,-187.427
20.18,-187.597
20.2,-187.767
20.22,-187.937
20.24,-188.107
20.26,-188.276
20.28,-188.446
20.3,-188.616
20.32,-188.785
20.34,-188.955
20.36,-189.125
20.38,-189.294
20.4,-189.463
20.42,-189.633
20.44,-189.802
20.46,-189.971
20.48,-190.141
20.5,-190.31
20.52,-190.479
20.54,-190.648
20.56,-190.817
20.58,-190.986
20.6,-191.155
20.62,-191.324
20.64,-191.492
20.66,-191.661
20.68,-191.83
20.7,-191.998
20.72,-192.167
20.74,-192.336
20.76,-192.504
20.78,-192.672
20.8,-192.841
20.82,-193.009
20.84,-193.177
20.86,-193.346
20.88,-193.514
20.9,-193.682
20.92,-193.85
20.94,-194.018
20.96,-194.186
20.98,-194.354
21,-194.522
21.02,-194.689
21.04,-194.857
21.06,-195.025
21.08,-195.192
21.1,-195.36
21.12,-195.527
21.14,-195.695
21.16,-195.862
21.18,-196.03
21.2,-196.197
21.22,-196.364
21.24,-196.531
21.26,-196.698
21.28,-196.865
21.3,-197.032
21.32,-197.199
21.34,-197.366
21.36,-197.533
21.38,-197.7
21.4,-197.867
21.42,-198.033
21.44,-198.2
21.46,-198.367
21.48,-198.533
21.5,-198.699
21.52,-198.866
21.54,-199.032
21.56,-199.198
21.58,-199.365
21.6,-199.531
21.62,-199.697
21.64,-199.863
21.66,-200.029
21.68,-200.195
21.7,-200.361
21.72,-200.527
21.74,-200.693
21.76,-200.858
21.78,-201.024
21.8,-201.19
21.82,-201.355
21.84,-201.521
21.86,-201.686
21.88,-201.851
21.9,-202.017
21.92,-202.182
21.94,-202.347
21.96,-202.512
21.98,-202.677
22,-202.842
22.02,-203.007
22.04,-203.172
22.06,-203.337
22.08,-203.502
22.1,-203.667
22.12,-203.831
22.14,-203.996
22.16,-204.161
22.18,-204.325
22.2,-204.49
22.22,-204.654
22.24,-204.818
22.26,-204.983
22.28,-205.147
22.3,-205.311
22.32,-205.475
22.34,-205.639
22.36,-205.803
22.38,-205.967
22.4,-206.131
22.42,-206.295
22.44,-206.458
22.46,-206.622
22.48,-206.786
22.5,-206.949
22.52,-207.113
22.54,-207.276
22.56,-207.44
22.58,-207.603
22.6,-207.766
22.62,-207.93
22.64,-208.093
22.66,-208.256
22.68,-208.419
22.7,-208.582
22.72,-208.745
22.74,-208.908
22.76,-209.07
22.78,-209.233
22.8,-209.396
22.82,-209.558
22.84,-209.721
22.86,-209.883
22.88,-210.046
22.9,-210.208
22.92,-210.37
22.94,-210.533
22.96,-210.695
22.98,-210.857
23,-211.019
23.02,-211.181
23.04,-211.343
23.06,-211.505
23.08,-211.667
23.1,-211.828
23.12,-211.99
23.14,-212.152
23.16,-212.313
23.18,-212.475
23.2,-212.636
23.22,-212.798
23.24,-212.959
23.26,-213.12
23.28,-213.281
23.3,-213.442
23.32,-213.604
23.34,-213.765
23.36,-213.925
23.38,-214.086
23.4,-214.247
23.42,-214.408
23.44,-214.569
23.46,-214.729
23.48,-214.89
23.5,-215.05
23.52,-215.211
23.54,-215.371
23.56,-215.531
23.58,-215.692
23.6,-215.852
23.62,-216.012
23.64,-216.172
23.66,-216.332
23.68,-216.492
23.7,-216.652
23.72,-216.812
23.74,-216.971
23.76,-217.131
23.78,-217.291
23.8,-217.45
23.82,-217.61
23.84,-217.769
23.86,-217.928
23.88,-218.088
23.9,-218.247
23.92,-218.406
23.94,-218.565
23.96,-218.724
23.98,-218.883
24,-219.042
24.02,-219.201
24.04,-219.36
24.06,-219.518
24.08,-219.677
24.1,-219.835
24.12,-219.994
24.14,-220.152
24.16,-220.311
24.18,-220.469
24.2,-220.627
24.22,-220.785
24.24,-220.944
24.26,-221.102
24.28,-221.26
24.3,-221.417
24.32,-221.575
24.34,-221.733
24.36,-221.891
24.38,-222.048
24.4,-222.206
24.42,-222.363
24.44,-222.521
24.46,-222.678
24.48,-222.836
24.5,-222.993
24.52,-223.15
24.54,-223.307
24.56,-223.464
24.58,-223.621
24.6,-223.778
24.62,-223.935
24.64,-224.092
24.66,-224.248
24.68,-224.405
24.7,-224.561
24.72,-224.718
24.74,-224.874
24.76,-225.031
24.78,-225.187
24.8,-225.343
24.82,-225.499
24.84,-225.655
24.86,-225.811
24.88,-225.967
24.9,-226.123
24.92,-226.279
24.94,-226.435
24.96,-226.591
24.98,-226.746
25,-226.902
25.02,-227.057
25.04,-227.213
25.06,-227.368
25.08,-227.523
25.1,-227.678
25.12,-227.833
25.14,-227.988
25.16,-228.143
25.18,-228.298
25.2,-228.453
25.22,-228.608
25.24,-228.763
25.26,-228.917
25.28,-229.072
25.3,-229.226
25.32,-229.381
25.34,-229.535
25.36,-229.689
25.38,-229.844
25.4,-229.998
25.42,-230.152
25.44,-230.306
25.46,-230.46
25.48,-230.614
25.5,-230.767
25.52,-230.921
25.54,-231.075
25.56,-231.228
25.58,-231.382
25.6,-231.535
25.62,-231.688
25.64,-231.842
25.66,-231.995
25.68,-232.148
25.7,-232.301
25.72,-232.454
25.74,-232.607
25.76,-232.76
25.78,-232.913
25.8,-233.065
25.82,-233.218
25.84,-233.371
25.86,-233.523
25.88,-233.675
25.9,-233.828
25.92,-233.98
25.94,-234.132
25.96,-234.284
25.98,-234.436
26,-234.588
26.02,-234.74
26.04,-234.892
26.06,-235.044
26.08,-235.196
26.1,-235.347
26.12,-235.499
26.14,-235.65
26.16,-235.802
26.18,-235.953
26.2,-236.104
26.22,-236.255
26.24,-236.406
26.26,-236.557
26.28,-236.708
26.3,-236.859
26.32,-237.01
26.34,-237.161
26.36,-237.311
26.38,-237.462
26.4,-237.612
26.42,-237.763
26.44,-237.913
26.46,-238.064
26.48,-238.214
26.5,-238.364
26.52,-238.514
26.54,-238.664
26.56,-238.814
26.58,-238.964
26.6,-239.113
26.62,-239.263
26.64,-239.413
26.66,-239.562
26.68,-239.712
26.7,-239.861
26.72,-240.01
26.74,-240.159
26.76,-240.309
26.78,-240.458
26.8,-240.607
26.82,-240.755
26.84,-240.904
26.86,-241.053
26.88,-241.202
26.9,-241.35
26.92,-241.499
26.94,-241.647
26.96,-241.796
26.98,-241.944
27,-242.092
27.02,-242.24
27.04,-242.388
27.06,-242.536
27.08,-242.684
27.1,-242.832
27.12,-242.98
27.14,-243.128
27.16,-243.275
27.18,-243.423
27.2,-243.57
27.22,-243.717
27.24,-243.865
27.26,-244.012
27.28,-244.159
27.3,-244.306
27.32,-244.453
27.34,-244.6
27.36,-244.747
27.38,-244.894
27.4,-245.04
27.42,-245.187
27.44,-245.333
27.46,-245.48
27.48,-245.626
27.5,-245.772
27.52,-245.918
27.54,-246.065
27.56,-246.211
27.58,-246.357
27.6,-246.502
27.62,-246.648
27.64,-246.794
27.66,-246.939
27.68,-247.085
27.7,-247.23
27.72,-247.376
27.74,-247.521
27.76,-247.666
27.78,-247.812
27.8,-247.957
27.82,-248.102
27.84,-248.246
27.86,-248.391
27.88,-248.536
27.9,-248.681
27.92,-248.825
27.94,-248.97
27.96,-249.114
